* Measurement data measured by REW V5.20.13
* Source: Trace Arithmetic result A / B
* Format: Trace Arithmetic result A / B
* Dated: Jul 27, 2023 3:43:43 PM
* REW Settings:
*  C-weighting compensation: Off
*  Target level: 75.0 dB
* Note: ; Trace Arithmetic A over B A = MRS 10dB B = Crin BETA 
* Measurement: MRS âˆ†
* Smoothing: 1/24 octave
* Frequency Step: 1/48 octave
* Start Frequency: 20.000 Hz
*
* Freq(Hz)	SPL(dB)
20.000000	1.407
20.299999	1.392
20.600000	1.368
20.900000	1.342
21.200001	1.316
21.400000	1.299
21.799999	1.266
22.000000	1.251
22.400000	1.223
22.700001	1.202
23.000000	1.183
23.299999	1.164
23.600000	1.147
24.000000	1.125
24.299999	1.110
24.700001	1.091
25.000000	1.078
25.400000	1.061
25.799999	1.046
26.200001	1.031
26.500000	1.021
26.900000	1.009
27.200001	1.000
27.600000	0.990
28.000000	0.980
28.500000	0.969
29.000000	0.960
29.500000	0.951
30.000000	0.943
30.400000	0.938
30.700001	0.935
31.100000	0.930
31.500000	0.927
32.000000	0.923
32.500000	0.920
33.000000	0.917
33.500000	0.915
34.000000	0.914
34.500000	0.912
35.000000	0.911
35.500000	0.909
36.000000	0.909
36.500000	0.908
37.000000	0.908
37.500000	0.907
38.200001	0.905
38.700001	0.905
39.500000	0.904
40.000000	0.903
40.599998	0.902
41.200001	0.900
41.799999	0.899
42.500000	0.897
43.099998	0.894
43.700001	0.892
44.400002	0.889
45.000000	0.886
45.500000	0.884
46.200001	0.881
46.799999	0.877
47.500000	0.873
48.200001	0.869
48.700001	0.866
49.400002	0.861
50.000000	0.857
50.799999	0.851
51.500000	0.846
52.200001	0.841
53.000000	0.835
53.799999	0.829
54.500000	0.824
55.200001	0.819
56.000000	0.812
57.000000	0.804
58.000000	0.797
59.000000	0.788
60.000000	0.781
60.799999	0.774
61.500000	0.770
62.200001	0.765
63.000000	0.760
64.000000	0.753
65.000000	0.746
66.000000	0.739
67.000000	0.732
68.000000	0.727
69.000000	0.721
70.000000	0.715
71.000000	0.710
72.000000	0.705
73.000000	0.700
74.000000	0.695
75.000000	0.691
76.199997	0.686
77.500000	0.682
78.800003	0.678
80.000000	0.675
81.199997	0.672
82.500000	0.669
83.800003	0.667
85.000000	0.664
86.199997	0.663
87.500000	0.661
88.500000	0.660
90.000000	0.659
91.199997	0.659
92.500000	0.658
93.800003	0.658
95.000000	0.658
96.199997	0.658
97.500000	0.658
98.800003	0.659
100.000000	0.659
101.500000	0.659
103.000000	0.661
104.400002	0.661
106.000000	0.662
107.500000	0.662
109.000000	0.663
110.599998	0.664
112.000000	0.664
113.800003	0.665
115.000000	0.666
117.199997	0.667
118.000000	0.667
120.599998	0.668
122.000000	0.668
124.099998	0.668
125.000000	0.668
126.500000	0.668
128.000000	0.668
131.500000	0.667
132.000000	0.667
134.000000	0.667
136.000000	0.667
138.000000	0.665
140.000000	0.664
143.000000	0.662
145.000000	0.661
147.500000	0.658
150.000000	0.656
152.500000	0.654
155.000000	0.652
157.500000	0.649
160.000000	0.646
162.500000	0.644
165.000000	0.642
167.500000	0.638
170.000000	0.635
172.500000	0.633
175.000000	0.630
177.500000	0.627
180.000000	0.623
182.500000	0.620
185.000000	0.617
187.500000	0.615
190.000000	0.612
192.500000	0.609
195.000000	0.606
197.500000	0.603
200.000000	0.600
203.000000	0.597
206.000000	0.594
209.000000	0.590
212.000000	0.587
214.000000	0.584
218.000000	0.580
220.000000	0.578
224.000000	0.573
227.000000	0.570
230.000000	0.567
233.000000	0.564
236.000000	0.561
240.000000	0.557
243.000000	0.554
247.000000	0.550
250.000000	0.547
254.000000	0.542
258.000000	0.538
262.000000	0.534
265.000000	0.530
269.000000	0.527
272.000000	0.524
276.000000	0.519
280.000000	0.515
285.000000	0.510
290.000000	0.505
295.000000	0.500
300.000000	0.495
304.000000	0.490
307.000000	0.487
311.000000	0.483
315.000000	0.478
320.000000	0.472
325.000000	0.467
330.000000	0.461
335.000000	0.455
340.000000	0.449
345.000000	0.443
350.000000	0.438
355.000000	0.432
360.000000	0.425
365.000000	0.419
370.000000	0.413
375.000000	0.407
382.000000	0.399
387.000000	0.392
395.000000	0.381
400.000000	0.375
406.000000	0.367
412.000000	0.359
418.000000	0.350
425.000000	0.340
431.000000	0.331
437.000000	0.323
444.000000	0.312
450.000000	0.303
455.000000	0.295
462.000000	0.284
468.000000	0.274
475.000000	0.263
482.000000	0.252
487.000000	0.243
494.000000	0.232
500.000000	0.221
508.000000	0.207
515.000000	0.195
522.000000	0.183
530.000000	0.169
538.000000	0.155
545.000000	0.142
552.000000	0.130
560.000000	0.116
570.000000	0.098
580.000000	0.082
590.000000	0.066
600.000000	0.050
608.000000	0.039
615.000000	0.030
622.000000	0.021
630.000000	0.012
640.000000	0.003
650.000000	-0.004
660.000000	-0.010
670.000000	-0.014
680.000000	-0.017
690.000000	-0.017
700.000000	-0.015
710.000000	-0.011
720.000000	-0.007
730.000000	-0.001
740.000000	0.005
750.000000	0.011
762.000000	0.020
775.000000	0.029
788.000000	0.039
800.000000	0.049
812.000000	0.058
825.000000	0.069
838.000000	0.081
850.000000	0.092
862.000000	0.103
875.000000	0.116
885.000000	0.127
900.000000	0.144
912.000000	0.157
925.000000	0.171
938.000000	0.183
950.000000	0.192
962.000000	0.199
975.000000	0.202
988.000000	0.199
1000.000000	0.191
1015.000000	0.173
1030.000000	0.145
1044.000000	0.112
1060.000000	0.065
1075.000000	0.013
1090.000000	-0.044
1106.000000	-0.109
1120.000000	-0.169
1138.000000	-0.248
1150.000000	-0.302
1172.000000	-0.400
1180.000000	-0.435
1206.000000	-0.546
1220.000000	-0.604
1241.000000	-0.685
1250.000000	-0.718
1265.000000	-0.769
1280.000000	-0.817
1315.000000	-0.913
1320.000000	-0.925
1340.000000	-0.970
1360.000000	-1.009
1380.000000	-1.041
1400.000000	-1.066
1430.000000	-1.097
1450.000000	-1.113
1475.000000	-1.128
1500.000000	-1.139
1525.000000	-1.147
1550.000000	-1.153
1575.000000	-1.158
1600.000000	-1.164
1625.000000	-1.171
1650.000000	-1.180
1675.000000	-1.191
1700.000000	-1.204
1725.000000	-1.219
1750.000000	-1.236
1775.000000	-1.256
1800.000000	-1.278
1825.000000	-1.302
1850.000000	-1.327
1875.000000	-1.354
1900.000000	-1.382
1925.000000	-1.411
1950.000000	-1.441
1975.000000	-1.473
2000.000000	-1.505
2030.000000	-1.543
2060.000000	-1.580
2090.000000	-1.615
2120.000000	-1.648
2140.000000	-1.668
2180.000000	-1.705
2200.000000	-1.720
2240.000000	-1.745
2270.000000	-1.760
2300.000000	-1.770
2330.000000	-1.778
2360.000000	-1.784
2400.000000	-1.787
2430.000000	-1.787
2470.000000	-1.785
2500.000000	-1.783
2540.000000	-1.778
2580.000000	-1.772
2620.000000	-1.764
2650.000000	-1.756
2690.000000	-1.744
2720.000000	-1.733
2760.000000	-1.716
2800.000000	-1.696
2850.000000	-1.666
2900.000000	-1.630
2950.000000	-1.589
3000.000000	-1.542
3040.000000	-1.500
3070.000000	-1.466
3110.000000	-1.418
3150.000000	-1.367
3200.000000	-1.301
3250.000000	-1.231
3300.000000	-1.160
3350.000000	-1.087
3400.000000	-1.011
3450.000000	-0.935
3500.000000	-0.858
3550.000000	-0.780
3600.000000	-0.703
3650.000000	-0.624
3700.000000	-0.546
3750.000000	-0.469
3820.000000	-0.362
3870.000000	-0.287
3950.000000	-0.171
4000.000000	-0.103
4060.000000	-0.024
4120.000000	0.048
4180.000000	0.113
4250.000000	0.176
4310.000000	0.219
4370.000000	0.251
4440.000000	0.273
4500.000000	0.279
4550.000000	0.276
4620.000000	0.263
4680.000000	0.247
4750.000000	0.226
4820.000000	0.209
4870.000000	0.202
4940.000000	0.199
5000.000000	0.206
5080.000000	0.228
5150.000000	0.258
5220.000000	0.296
5300.000000	0.347
5380.000000	0.404
5450.000000	0.456
5520.000000	0.508
5600.000000	0.566
5700.000000	0.634
5800.000000	0.694
5900.000000	0.746
6000.000000	0.788
6080.000000	0.815
6150.000000	0.832
6220.000000	0.844
6300.000000	0.853
6400.000000	0.855
6500.000000	0.849
6600.000000	0.835
6700.000000	0.814
6800.000000	0.788
6900.000000	0.759
7000.000000	0.728
7100.000000	0.699
7200.000000	0.673
7300.000000	0.653
7400.000000	0.640
7500.000000	0.638
7620.000000	0.652
7750.000000	0.690
7880.000000	0.755
8000.000000	0.842
8120.000000	0.956
8250.000000	1.109
8380.000000	1.291
8500.000000	1.484
8620.000000	1.696
8750.000000	1.943
8850.000000	2.140
9000.000000	2.435
9120.000000	2.658
9250.000000	2.875
9380.000000	3.059
9500.000000	3.195
9620.000000	3.298
9750.000000	3.374
9880.000000	3.414
10000.000000	3.417
10150.000000	3.375
10300.000000	3.281
10440.000000	3.160
10600.000000	3.038
10750.000000	3.019
10900.000000	3.142
11060.000000	3.394
11200.000000	3.635
11380.000000	3.888
11500.000000	4.000
11720.000000	4.110
11800.000000	4.118
12060.000000	4.029
12200.000000	3.886
12410.000000	3.542
12500.000000	3.363
12650.000000	3.041
12800.000000	2.714
13150.000000	2.007
13200.000000	1.917
13400.000000	1.602
13600.000000	1.362
13800.000000	1.196
14000.000000	1.105
14300.000000	1.086
14500.000000	1.131
14750.000000	1.221
15000.000000	1.307
15250.000000	1.351
15500.000000	1.331
15750.000000	1.234
16000.000000	1.065
16250.000000	0.840
16500.000000	0.578
16750.000000	0.296
17000.000000	0.009
17250.000000	-0.274
17500.000000	-0.541
17750.000000	-0.777
18000.000000	-0.968
18250.000000	-1.095
18500.000000	-1.142
18750.000000	-1.103
19000.000000	-0.984
19250.000000	-0.813
19500.000000	-0.689
19750.000000	-0.350
20000.000000	-0.350
